# Channel	Counts	Error	Energy (keV)
0	0	0.0000	0.00
1	5	2.2361	3.09
2	458	24.6577	6.19
3	4783	108.0602	9.28
4	4279	115.8663	12.37
5	3352	104.9952	15.47
6	2844	95.9375	18.56
7	2905	91.5150	21.65
8	3177	91.0220	24.75
9	3442	88.2043	27.84
10	3266	83.7974	30.93
11	3504	83.3427	34.03
12	3607	83.2406	37.12
13	3791	82.3954	40.21
14	3778	80.2247	43.31
15	3938	81.3757	46.40
16	4349	82.5409	49.49
17	4474	81.1911	52.59
18	4364	80.5854	55.68
19	4721	80.5792	58.77
20	4935	81.9451	61.87
21	4953	80.6412	64.96
22	5112	81.6701	68.05
23	5249	81.8352	71.15
24	5548	83.4626	74.24
25	5601	83.4805	77.33
26	5452	81.7802	80.43
27	5613	82.3954	83.52
28	5771	83.3127	86.62
29	5942	83.6301	89.71
30	5982	83.9881	92.80
31	6203	85.3405	95.90
32	6658	87.5557	98.99
33	6503	86.6314	102.08
34	6272	84.6286	105.18
35	6402	85.0999	108.27
36	6438	85.1352	111.36
37	6521	85.2819	114.46
38	6447	85.0000	117.55
39	6763	86.6891	120.64
40	6894	87.2238	123.74
41	7200	88.6454	126.83
42	6668	85.5570	129.92
43	6927	86.7122	133.02
44	6919	86.4118	136.11
45	6869	86.0407	139.20
46	6823	85.6563	142.30
47	7112	87.6926	145.39
48	7197	87.7667	148.48
49	7197	87.2869	151.58
50	6991	86.2612	154.67
51	7007	86.0755	157.76
52	6990	85.7438	160.86
53	6994	85.8138	163.95
54	6896	84.9941	167.04
55	6991	85.4576	170.14
56	7064	85.9535	173.23
57	7050	85.7904	176.32
58	6860	84.6168	179.42
59	6839	84.4097	182.51
60	6703	83.4686	185.60
61	6771	83.3847	188.70
62	6733	83.3247	191.79
63	6892	84.0952	194.88
64	7038	85.1117	197.98
65	6822	83.5344	201.07
66	6498	81.9024	204.16
67	6584	82.3286	207.26
68	6463	81.3572	210.35
69	6489	81.4555	213.44
70	6404	80.8455	216.54
71	6580	81.7680	219.63
72	6591	81.7985	222.72
73	6397	80.7651	225.82
74	6163	79.0506	228.91
75	6200	79.1833	232.00
76	6092	78.6766	235.10
77	6131	78.7210	238.19
78	5951	77.6209	241.29
79	5997	77.9166	244.38
80	6189	79.0759	247.47
81	6114	78.5493	250.57
82	5792	76.6420	253.66
83	5655	75.6505	256.75
84	5749	76.1643	259.85
85	5717	75.9408	262.94
86	5545	74.7864	266.03
87	5457	74.1687	269.13
88	5588	74.9933	272.22
89	5485	74.3169	275.31
90	5171	72.1457	278.41
91	5056	71.3442	281.50
92	5095	71.6310	284.59
93	4916	70.4131	287.69
94	4937	70.4344	290.78
95	4872	69.9714	293.87
96	5217	72.3809	296.97
97	5032	71.1337	300.06
98	4575	67.7864	303.15
99	4538	67.5574	306.25
100	4500	67.2607	309.34
101	4277	65.5210	312.43
102	4341	66.0076	315.53
103	4297	65.6582	318.62
104	4311	65.7799	321.71
105	4075	63.8984	324.81
106	3983	63.1902	327.90
107	3881	62.3779	330.99
108	3858	62.2736	334.09
109	3883	62.3618	337.18
110	3674	60.7289	340.27
111	3677	60.7371	343.37
112	3782	61.5792	346.46
113	3583	59.9750	349.55
114	3369	58.1636	352.65
115	3323	57.7321	355.74
116	3231	56.8946	358.83
117	3062	55.3534	361.93
118	2987	54.7449	365.02
119	3048	55.3173	368.11
120	3049	55.2721	371.21
121	2838	53.4041	374.30
122	2847	53.4509	377.39
123	2646	51.4976	380.49
124	2653	51.5655	383.58
125	2577	50.9215	386.68
126	2450	49.5984	389.77
127	2490	50.0000	392.86
128	2514	50.2792	395.96
129	2362	48.6826	399.05
130	2224	47.2017	402.14
131	2203	47.0638	405.24
132	2224	47.3498	408.33
133	2085	45.7493	411.42
134	2103	45.9021	414.52
135	1897	43.7836	417.61
136	1940	44.2267	420.70
137	1906	43.7264	423.80
138	1852	43.1045	426.89
139	1809	42.6732	429.98
140	1692	41.3280	433.08
141	1716	41.4970	436.17
142	1628	40.4475	439.26
143	1579	39.8372	442.36
144	1709	41.4608	445.45
145	1593	40.0375	448.54
146	1468	38.4708	451.64
147	1504	38.8844	454.73
148	1414	37.7094	457.82
149	1443	38.0395	460.92
150	1379	37.2424	464.01
151	1446	38.1838	467.10
152	1373	37.1349	470.20
153	1357	36.9459	473.29
154	1318	36.4966	476.38
155	1408	37.5766	479.48
156	1301	36.1801	482.57
157	1296	36.0278	485.66
158	1271	35.7351	488.76
159	1265	35.6511	491.85
160	1363	37.0000	494.94
161	1325	36.5650	498.04
162	1155	34.1028	501.13
163	1130	33.7639	504.22
164	1182	34.5254	507.32
165	1150	34.0000	510.41
166	1157	34.1614	513.50
167	1160	34.1467	516.60
168	1235	35.2846	519.69
169	1245	35.3695	522.78
170	1152	34.0000	525.88
171	1139	33.8083	528.97
172	1126	33.6155	532.06
173	1115	33.5112	535.16
174	1077	32.9090	538.25
175	1186	34.6699	541.35
176	1311	36.3456	544.44
177	1239	35.2562	547.53
178	1215	34.9714	550.63
179	1339	36.7015	553.72
180	1317	36.3731	556.81
181	1411	37.6165	559.91
182	1393	37.4299	563.00
183	1468	38.4448	566.09
184	1634	40.5216	569.19
185	1620	40.2492	572.28
186	1689	41.2432	575.37
187	1735	41.6533	578.47
188	1744	41.8808	581.56
189	1952	44.2719	584.65
190	2056	45.4093	587.75
191	2162	46.5403	590.84
192	2362	48.7032	593.93
193	2435	49.3862	597.03
194	2391	48.9796	600.12
195	2497	49.9900	603.21
196	2653	51.5655	606.31
197	2698	52.0000	609.40
198	2808	52.9906	612.49
199	2919	54.0463	615.59
200	3140	56.0892	618.68
201	3037	55.1271	621.77
202	3001	54.8179	624.87
203	3094	55.7136	627.96
204	3079	55.4887	631.05
205	3024	55.0636	634.15
206	2912	54.0740	637.24
207	2933	54.1756	640.33
208	2996	54.8088	643.43
209	2733	52.3737	646.52
210	2557	50.6261	649.61
211	2457	49.5883	652.71
212	2343	48.4458	655.80
213	2204	46.9468	658.89
214	2013	44.8888	661.99
215	1885	43.4396	665.08
216	1774	42.1189	668.17
217	1620	40.2989	671.27
218	1442	37.9737	674.36
219	1267	35.6230	677.45
220	1117	33.4215	680.55
221	1021	32.0780	683.64
222	899	30.0167	686.73
223	825	28.8617	689.83
224	796	28.3549	692.92
225	690	26.3059	696.01
226	592	24.4131	699.11
227	481	22.0227	702.20
228	443	21.1896	705.30
229	356	18.9209	708.39
230	324	18.1108	711.48
231	292	17.2047	714.58
232	235	15.3948	717.67
233	194	14.4222	720.76
234	176	13.2665	723.86
235	127	11.2694	726.95
236	134	11.8322	730.04
237	104	10.3923	733.14
238	98	10.3923	736.23
239	74	8.7178	739.32
240	77	8.8882	742.42
241	67	8.5440	745.51
242	68	8.2462	748.60
243	74	8.8318	751.70
244	57	7.9373	754.79
245	39	6.2450	757.88
246	40	6.9282	760.98
247	62	8.0000	764.07
248	39	6.8557	767.16
249	39	6.7082	770.26
250	30	5.6569	773.35
251	43	6.5574	776.44
252	49	7.4162	779.54
253	26	5.2915	782.63
254	29	5.3852	785.72
255	44	6.9282	788.82
256	33	5.7446	791.91
257	23	5.0000	795.00
258	31	5.7446	798.10
259	37	6.2450	801.19
260	26	5.8310	804.28
261	33	5.9161	807.38
262	27	5.7446	810.47
263	25	5.1962	813.56
264	34	5.8310	816.66
265	35	5.9161	819.75
266	20	4.8990	822.84
267	22	4.6904	825.94
268	17	4.5826	829.03
269	25	5.0000	832.12
270	26	5.2915	835.22
271	19	4.5826	838.31
272	23	5.0000	841.40
273	30	5.4772	844.50
274	21	4.5826	847.59
275	25	5.0000	850.68
276	18	4.2426	853.78
277	17	4.3589	856.87
278	19	4.5826	859.97
279	17	4.1231	863.06
280	18	4.4721	866.15
281	14	4.0000	869.25
282	16	4.6904	872.34
283	19	4.3589	875.43
284	17	4.1231	878.53
285	14	4.4721	881.62
286	12	3.7417	884.71
287	10	3.4641	887.81
288	11	3.8730	890.90
289	20	4.4721	893.99
290	7	3.3166	897.09
291	8	3.4641	900.18
292	11	3.3166	903.27
293	12	3.4641	906.37
294	17	4.3589	909.46
295	9	3.6056	912.55
296	11	3.6056	915.65
297	12	3.7417	918.74
298	0	1.4142	921.83
299	12	4.0000	924.93
300	4	2.4495	928.02
301	10	3.7417	931.11
302	11	3.3166	934.21
303	3	2.2361	937.30
304	12	3.4641	940.39
305	10	3.1623	943.49
306	8	2.8284	946.58
307	6	3.1623	949.67
308	2	2.8284	952.77
309	11	3.6056	955.86
310	7	2.6458	958.95
311	7	3.0000	962.05
312	0	2.4495	965.14
313	5	2.2361	968.23
314	5	2.6458	971.33
315	5	2.6458	974.42
316	7	2.6458	977.51
317	6	2.4495	980.61
318	0	1.7321	983.70
319	4	2.0000	986.79
320	4	2.4495	989.89
321	2	2.0000	992.98
322	1	1.7321	996.07
323	2	1.4142	999.17
324	3	1.7321	1002.26
325	5	2.2361	1005.36
326	3	1.7321	1008.45
327	3	1.7321	1011.54
328	3	1.7321	1014.64
329	4	2.0000	1017.73
330	4	2.0000	1020.82
331	2	1.4142	1023.92
332	2	1.4142	1027.01
333	2	1.4142	1030.10
334	0	0.0000	1033.20
335	4	2.0000	1036.29
336	2	1.4142	1039.38
337	1	1.0000	1042.48
338	1	1.7321	1045.57
339	1	1.0000	1048.66
340	3	1.7321	1051.76
341	2	1.4142	1054.85
342	0	1.4142	1057.94
343	2	1.4142	1061.04
344	1	1.0000	1064.13
345	1	1.0000	1067.22
346	1	1.0000	1070.32
347	0	1.7321	1073.41
348	1	1.7321	1076.50
349	1	1.0000	1079.60
350	1	1.7321	1082.69
351	0	0.0000	1085.78
352	0	0.0000	1088.88
353	2	1.4142	1091.97
354	1	1.0000	1095.06
355	0	0.0000	1098.16
356	0	1.0000	1101.25
357	0	1.4142	1104.34
358	0	1.0000	1107.44
359	0	1.0000	1110.53
360	1	1.0000	1113.62
361	0	0.0000	1116.72
362	0	0.0000	1119.81
363	0	0.0000	1122.90
364	0	1.0000	1126.00
365	0	0.0000	1129.09
366	0	1.0000	1132.18
367	0	0.0000	1135.28
368	0	0.0000	1138.37
369	0	1.4142	1141.46
370	0	1.0000	1144.56
371	0	0.0000	1147.65
372	1	1.0000	1150.74
373	3	2.2361	1153.84
374	1	1.0000	1156.93
375	0	0.0000	1160.02
376	0	0.0000	1163.12
377	0	1.4142	1166.21
378	1	1.0000	1169.31
379	0	0.0000	1172.40
380	0	0.0000	1175.49
381	0	1.4142	1178.59
382	0	0.0000	1181.68
383	0	0.0000	1184.77
384	0	1.4142	1187.87
385	0	1.4142	1190.96
386	0	0.0000	1194.05
387	0	0.0000	1197.15
388	0	0.0000	1200.24
389	0	0.0000	1203.33
390	0	0.0000	1206.43
391	2	1.4142	1209.52
392	0	0.0000	1212.61
393	0	0.0000	1215.71
394	0	0.0000	1218.80
395	0	1.0000	1221.89
396	0	0.0000	1224.99
397	0	0.0000	1228.08
398	0	0.0000	1231.17
399	1	1.0000	1234.27
400	0	0.0000	1237.36
401	1	1.0000	1240.45
402	0	0.0000	1243.55
403	0	1.0000	1246.64
404	0	0.0000	1249.73
405	0	0.0000	1252.83
406	0	0.0000	1255.92
407	0	0.0000	1259.01
408	0	0.0000	1262.11
409	0	0.0000	1265.20
410	0	0.0000	1268.29
411	0	0.0000	1271.39
412	0	0.0000	1274.48
413	0	0.0000	1277.57
414	0	0.0000	1280.67
415	2	1.4142	1283.76
416	0	0.0000	1286.85
417	0	0.0000	1289.95
418	0	0.0000	1293.04
419	1	1.0000	1296.13
420	0	0.0000	1299.23
421	1	1.0000	1302.32
422	0	0.0000	1305.41
423	0	0.0000	1308.51
424	0	0.0000	1311.60
425	0	0.0000	1314.69
426	0	0.0000	1317.79
427	0	0.0000	1320.88
428	0	0.0000	1323.98
429	0	0.0000	1327.07
430	0	0.0000	1330.16
431	0	0.0000	1333.26
432	1	1.0000	1336.35
433	0	0.0000	1339.44
434	0	0.0000	1342.54
435	0	0.0000	1345.63
436	0	0.0000	1348.72
437	0	0.0000	1351.82
438	0	0.0000	1354.91
439	0	0.0000	1358.00
440	0	0.0000	1361.10
441	0	0.0000	1364.19
442	0	0.0000	1367.28
443	0	0.0000	1370.38
444	0	0.0000	1373.47
445	0	0.0000	1376.56
446	0	0.0000	1379.66
447	0	0.0000	1382.75
448	0	0.0000	1385.84
449	0	0.0000	1388.94
450	0	0.0000	1392.03
451	0	0.0000	1395.12
452	0	0.0000	1398.22
453	0	1.0000	1401.31
454	0	0.0000	1404.40
455	0	0.0000	1407.50
456	0	0.0000	1410.59
457	0	0.0000	1413.68
458	0	0.0000	1416.78
459	0	1.0000	1419.87
460	0	0.0000	1422.96
461	0	0.0000	1426.06
462	0	1.0000	1429.15
463	0	0.0000	1432.24
464	0	1.0000	1435.34
465	1	1.0000	1438.43
466	0	0.0000	1441.52
467	0	0.0000	1444.62
468	0	0.0000	1447.71
469	0	0.0000	1450.80
470	0	0.0000	1453.90
471	1	1.0000	1456.99
472	0	0.0000	1460.08
473	0	0.0000	1463.18
474	0	0.0000	1466.27
475	0	0.0000	1469.37
476	0	0.0000	1472.46
477	0	0.0000	1475.55
478	0	1.0000	1478.65
479	0	0.0000	1481.74
480	0	0.0000	1484.83
481	0	0.0000	1487.93
482	0	0.0000	1491.02
483	0	0.0000	1494.11
484	0	0.0000	1497.21
485	0	0.0000	1500.30
486	0	0.0000	1503.39
487	0	0.0000	1506.49
488	0	0.0000	1509.58
489	1	1.0000	1512.67
490	0	0.0000	1515.77
491	0	0.0000	1518.86
492	0	0.0000	1521.95
493	1	1.0000	1525.05
494	0	0.0000	1528.14
495	0	0.0000	1531.23
496	0	0.0000	1534.33
497	0	0.0000	1537.42
498	0	0.0000	1540.51
499	0	0.0000	1543.61
500	0	0.0000	1546.70
501	0	0.0000	1549.79
502	0	1.0000	1552.89
503	0	0.0000	1555.98
504	0	0.0000	1559.07
505	0	0.0000	1562.17
506	0	0.0000	1565.26
507	0	0.0000	1568.35
508	0	0.0000	1571.45
509	1	1.0000	1574.54
510	0	0.0000	1577.63
511	0	1.4142	1580.73
